Energy (MeV)	LaCl\d3\n:Ce (SEB 347)	Uncertainty	Energy (MeV)	
0.10300	0.61236 9.8594	
0.10900	1.0786	16.288
0.11400	0.95743	13.500
0.12000	1.2051	15.788
0.12600	1.4854	17.974
0.13200	1.5015	16.668
0.13800	1.8341	18.526
0.14500	2.2166	20.173
0.15100	2.2606	18.313	
0.15800	2.6479	18.802	
0.16400	2.7973	17.066	
0.17200	3.1913	16.280	
0.17900	3.7813	15.509	
0.18600	4.9534	15.366	
0.19300	6.1443	12.921	
0.20100	8.9214	9.8640	
0.20900	16.398	2.4528	
0.21700	14.489	2.1613	
0.22400	14.331	2.1321	
0.23300	14.593	2.1691	
0.24100	12.397	1.8385	
0.25000	10.229	1.5154	
0.25800	8.8219	1.3064	
0.26700	8.8900	1.3154	
0.27600	8.4972	1.2554	
0.28500	9.4235	1.3916	
0.29400	7.8383	1.1562	
0.30400	8.7514	1.2906	
0.31300	8.7291	1.2872	
0.32300	11.105	1.6360	
0.33200	10.997	1.6197	
0.34300	10.336	1.5220	
0.35300	9.6274	1.4181	
0.36300	9.6226	1.4165	
0.37300	17.854	2.6277	
0.38400	14.746	2.1696	
0.39500	9.3205	1.3717	
0.40600	9.4769	1.3947	
0.41700	9.7396	1.4329	
0.42800	9.7581	1.4353	
0.43900	9.1491	1.3458	
0.45100	8.9830	1.3213	
0.46200	8.4052	1.2362	
0.47400	9.5278	1.4013	
0.48600	8.8638	1.3038	
0.49900	9.9672	1.4660	
0.51100	8.6132	1.2667	
0.52400	8.2452	1.2126	
0.53600	7.1809	1.0561	
0.54900	7.2502	1.0663	
0.56100	9.0243	1.3273	
0.57400	10.393	1.9200	
0.58700	8.8295	1.6312	
0.60100	8.2893	1.5314	
0.61400	8.3955	1.5511	
0.62800	7.5855	1.4014	
0.64200	7.5507	1.3950	
0.65600	6.4843	1.1980	
0.67000	6.7958	1.2556	
0.68400	6.6830	1.2347	
0.69800	7.3458	1.3572	
0.71300	7.0471	1.3020	
0.72800	5.9992	1.1084	
0.74300	5.5616	1.0276	
0.75700	5.7337	1.0595	
0.77300	5.0916	0.94083	
0.78800	3.9743	0.73422	
0.80400	4.7357	0.87488	
0.81900	4.1931	0.77465	
0.83500	3.8747	0.71583	
0.85100	3.8584	0.71281	
0.86700	2.9656	0.54788	
0.88300	3.7006	0.68366	
0.90000	3.2640	0.60300	
0.91600	2.9481	0.54465	
0.93300	3.4771	0.64238	
0.95000	3.1852	0.58846	
0.96700	2.9339	0.54203	
0.98400	2.8314	0.52310	
1.0020	2.6022	0.48075	
1.0190	2.6632	0.49202	
1.0370	2.4053	0.44438	
1.0540	1.8623	0.34406	
1.0720	2.0384	0.37660	
1.0900	2.0268	0.37446	
1.1090	2.0748	0.38332	
1.1270	2.0750	0.38336	
1.1460	1.9491	0.36010	
1.1640	1.9317	0.35688	
1.1830	1.8471	0.34125	
1.2020	1.8233	0.33687	
1.2210	1.7758	0.32810	
1.2400	1.6942	0.31301	
1.2600	1.6906	0.31235	
1.2790	1.6467	0.30424	
1.2990	1.6000	0.29562	
1.3190	1.5567	0.28762	
1.3390	1.5720	0.29044	
1.3590	1.3769	0.25439	
1.3800	1.4813	0.33662	
1.4000	1.3571	0.30839	
1.4210	1.3906	0.31601	
1.4420	1.3755	0.31256	
1.4630	1.2846	0.29193	
1.4840	1.2371	0.28112	
1.5060	1.2055	0.27395	
1.5270	1.1895	0.27032	
1.5490	1.1777	0.26763	
1.5700	1.1510	0.26158	
1.5920	1.1025	0.25054	
1.6140	1.0773	0.24481	
1.6370	1.0778	0.24494	
1.6590	1.0465	0.23783	
1.6820	1.0524	0.23917	
1.7040	1.0573	0.24030	
1.7270	1.0202	0.23187	
1.7500	0.98392	0.22362	
1.7730	0.97938	0.22259	
1.7960	0.95513	0.21708	
1.8200	0.85438	0.19419	
1.8430	0.91935	0.20896	
1.8670	0.87298	0.19842	
1.8910	0.84070	0.19109	
1.9150	0.84673	0.19247	
1.9390	0.82367	0.18723	
1.9640	0.81279	0.18476	
1.9880	0.74011	0.16824	
2.0130	0.73147	0.16628	
2.0380	0.75833	0.17240	
2.0880	0.74897	0.17029	
2.1390	0.69592	0.15824	
2.1900	0.65733	0.14948	
2.2420	0.60902	0.13852	
2.2950	0.56982	0.12962	
2.3480	0.53858	0.12254	
2.4020	0.49853	0.11346	
2.4560	0.46005	0.10473	
2.5110	0.42998	0.15450	
2.5670	0.40560	0.14574	
2.6230	0.37813	0.13587	
2.6800	0.35022	0.12584	
2.7380	0.32226	0.11579	
2.7960	0.29823	0.10716	
2.8550	0.27584	0.099115
2.9140	0.25662	0.092207 	
2.9740	0.23691	0.085126	
3.0350	0.22051	0.079235	
3.0960	0.20297	0.072930	
3.1580	0.18431	0.066227	
3.2210	0.16975	0.060996	
3.2840	0.15774	0.056679	
3.3470	0.14576	0.052374	
3.4120	0.13503	0.048520	
3.4770	0.12599	0.045272	
3.5420	0.11547	0.041491	
3.6080	0.10489	0.037689		
3.6750	0.095547	0.034333	
3.7430	0.086849	0.031207	
3.8110	0.080405	0.028892	
3.8790	0.073096	0.026266	
3.9490	0.066441	0.023874	
4.0190	0.061825	0.022216	
4.0890	0.056465	0.020290	
4.1600	0.051475	0.018497	
4.2320	0.047125	0.016934	
4.3040	0.042668	0.015332	
4.3770	0.038131	0.013702	
4.4510	0.034849	0.012523	
4.5250	0.032115	0.011540	
4.6000	0.028927	0.010395	
4.6760	0.026217	0.0094209	
4.7520	0.024141	0.0086750	
4.8280	0.021654	0.0077812	
4.9060	0.019539	0.0070213	
4.9840	0.017696	0.0063590	
5.0620	0.016257	0.0058418	
5.1410	0.014447	0.0051916	
5.2210	0.012915	0.0046411	
5.3020	0.011568	0.0041571	
5.3830	0.010599	0.0038089	
5.4640	0.0094351	0.0033906	
5.5470	0.0085086	0.0030576	
5.6290	0.0077188	0.0027738	
5.7130	0.0069298	0.0024903	
5.7970	0.0062526	0.0022470	
5.8820	0.0056396	0.0020267	
5.9670	0.0050624	0.0018193	
6.0530	0.0045312	0.0016284	
6.1400	0.0040786	0.0014657	
6.2270	0.0036340	0.0013060
6.3150	0.0032195	0.0011570
6.4030	0.0029152	0.0010476
6.4920	0.0026253	0.00094348
6.5820	0.0023241	0.00083526
6.6720	0.0020819	0.00074819
6.7630	0.0018785	0.00067512
6.8550	0.0016774	0.00060285
6.9470	0.0015155	0.00054468